# TAKENAKA 1990
# @url: http://dx.doi.org/10.1088/0026-1394/27/4/001
# @description: Density measurement at atmospheric pressure from 0 - 85 degC.
# @source: Takenaka, M. and R. Masui, Metrologia 27, 165 (1990).
# @units: K,kg/m^3,MPa
# @year: 1990
# @phase: liquid
# @species: H2O
# Columns: Temperature [K], density [kg/m3], pressure [MPa]
# column names below:
T,rho,p

273.150000000,999.842688307,0.101325000
278.150000000,999.966804673,0.101325000
283.150000000,999.702680518,0.101325000
288.150000000,999.102787976,0.101325000
293.150000000,998.207278935,0.101325000
298.150000000,997.047758909,0.101325000
303.150000000,995.649619729,0.101325000
308.150000000,994.033584300,0.101325000
313.150000000,992.216780855,0.101325000
318.150000000,990.213517312,0.101325000
323.150000000,988.035854878,0.101325000
328.150000000,985.694042150,0.101325000
333.150000000,983.196849429,0.101325000
338.150000000,980.551829925,0.101325000
343.150000000,977.765526409,0.101325000
348.150000000,974.843636464,0.101325000
353.150000000,971.791145888,0.101325000
358.150000000,968.612437326,0.101325000
